## w(eV)         sigma(Sm^-1)     kappa(W(mK)^-1)        L12/e(Am^-1)      L22/e^2(Wm^-1)
    0.01              515800             765.105        -1.00553e+07         2.68503e+08
    0.03              515797             765.099        -1.00552e+07         2.68503e+08
    0.05              515790             765.086        -1.00552e+07         2.68503e+08
    0.07              515779             765.068        -1.00551e+07         2.68503e+08
    0.09              515765             765.044        -1.00551e+07         2.68503e+08
    0.11              515748             765.014         -1.0055e+07         2.68503e+08
    0.13              515727             764.978        -1.00549e+07         2.68502e+08
    0.15              515703             764.935        -1.00547e+07         2.68502e+08
    0.17              515675             764.887        -1.00546e+07         2.68502e+08
    0.19              515644             764.833        -1.00544e+07         2.68502e+08
    0.21              515609             764.772        -1.00542e+07         2.68502e+08
    0.23              515570             764.706         -1.0054e+07         2.68502e+08
    0.25              515529             764.633        -1.00537e+07         2.68502e+08
    0.27              515483             764.555        -1.00535e+07         2.68502e+08
    0.29              515435              764.47        -1.00532e+07         2.68502e+08
    0.31              515383             764.379        -1.00529e+07         2.68501e+08
    0.33              515327             764.282        -1.00526e+07         2.68501e+08
    0.35              515268              764.18        -1.00523e+07         2.68501e+08
    0.37              515205             764.071        -1.00519e+07         2.68501e+08
    0.39              515139             763.956        -1.00515e+07           2.685e+08
    0.41              515069             763.835        -1.00512e+07           2.685e+08
    0.43              514996             763.708        -1.00507e+07           2.685e+08
    0.45              514920             763.575        -1.00503e+07         2.68499e+08
    0.47              514840             763.435        -1.00499e+07         2.68499e+08
    0.49              514756              763.29        -1.00494e+07         2.68498e+08
    0.51              514669             763.139        -1.00489e+07         2.68498e+08
    0.53              514578             762.981        -1.00484e+07         2.68497e+08
    0.55              514484             762.818        -1.00478e+07         2.68497e+08
    0.57              514387             762.648        -1.00473e+07         2.68496e+08
    0.59              514286             762.473        -1.00467e+07         2.68495e+08
    0.61              514182             762.291        -1.00461e+07         2.68495e+08
    0.63              514074             762.103        -1.00455e+07         2.68494e+08
    0.65              513962             761.909        -1.00448e+07         2.68493e+08
    0.67              513847             761.709        -1.00442e+07         2.68492e+08
    0.69              513729             761.503        -1.00435e+07         2.68491e+08
    0.71              513607             761.291        -1.00428e+07          2.6849e+08
    0.73              513482             761.073         -1.0042e+07         2.68488e+08
    0.75              513353             760.848        -1.00413e+07         2.68487e+08
    0.77              513220             760.618        -1.00405e+07         2.68486e+08
    0.79              513085             760.381        -1.00397e+07         2.68484e+08
    0.81              512945             760.139        -1.00389e+07         2.68483e+08
    0.83              512802              759.89        -1.00381e+07         2.68481e+08
    0.85              512656             759.635        -1.00372e+07         2.68479e+08
    0.87              512506             759.374        -1.00363e+07         2.68477e+08
    0.89              512353             759.106        -1.00354e+07         2.68475e+08
    0.91              512196             758.833        -1.00345e+07         2.68473e+08
    0.93              512036             758.554        -1.00335e+07         2.68471e+08
    0.95              511872             758.268        -1.00326e+07         2.68469e+08
    0.97              511705             757.976        -1.00316e+07         2.68466e+08
    0.99              511534             757.678        -1.00306e+07         2.68463e+08
    1.01              511360             757.374        -1.00295e+07         2.68461e+08
    1.03              511182             757.064        -1.00284e+07         2.68458e+08
    1.05              511001             756.748        -1.00273e+07         2.68455e+08
    1.07              510816             756.425        -1.00262e+07         2.68451e+08
    1.09              510628             756.096        -1.00251e+07         2.68448e+08
    1.11              510436             755.761        -1.00239e+07         2.68444e+08
    1.13              510241              755.42        -1.00227e+07          2.6844e+08
    1.15              510042             755.073        -1.00215e+07         2.68436e+08
    1.17              509840              754.72        -1.00203e+07         2.68432e+08
    1.19              509634              754.36         -1.0019e+07         2.68428e+08
    1.21              509425             753.994        -1.00177e+07         2.68423e+08
    1.23              509212             753.622        -1.00164e+07         2.68418e+08
    1.25              508996             753.244         -1.0015e+07         2.68413e+08
    1.27              508776              752.86        -1.00137e+07         2.68408e+08
    1.29              508553             752.469        -1.00123e+07         2.68402e+08
    1.31              508326             752.072        -1.00108e+07         2.68396e+08
    1.33              508096             751.669        -1.00094e+07          2.6839e+08
    1.35              507862              751.26        -1.00079e+07         2.68384e+08
    1.37              507625             750.844        -1.00064e+07         2.68378e+08
    1.39              507384             750.423        -1.00049e+07         2.68371e+08
    1.41              507140             749.995        -1.00033e+07         2.68364e+08
    1.43              506892              749.56        -1.00017e+07         2.68356e+08
    1.45              506641              749.12        -1.00001e+07         2.68349e+08
    1.47              506386             748.673        -9.99846e+06         2.68341e+08
    1.49              506128              748.22        -9.99679e+06         2.68332e+08
    1.51              505866             747.761        -9.99508e+06         2.68324e+08
    1.53              505601             747.295        -9.99335e+06         2.68315e+08
    1.55              505332             746.824        -9.99159e+06         2.68305e+08
    1.57              505060             746.346         -9.9898e+06         2.68296e+08
    1.59              504784             745.861        -9.98798e+06         2.68286e+08
    1.61              504504             745.371        -9.98613e+06         2.68276e+08
    1.63              504222             744.874        -9.98424e+06         2.68265e+08
    1.65              503935             744.371        -9.98233e+06         2.68254e+08
    1.67              503645             743.861        -9.98039e+06         2.68242e+08
    1.69              503352             743.345        -9.97841e+06          2.6823e+08
    1.71              503055             742.823        -9.97641e+06         2.68218e+08
    1.73              502755             742.295        -9.97437e+06         2.68205e+08
    1.75              502451              741.76         -9.9723e+06         2.68192e+08
    1.77              502143             741.219         -9.9702e+06         2.68179e+08
    1.79              501832             740.672        -9.96807e+06         2.68165e+08
    1.81              501518             740.118         -9.9659e+06          2.6815e+08
    1.83              501200             739.558         -9.9637e+06         2.68136e+08
    1.85              500878             738.992        -9.96147e+06          2.6812e+08
    1.87              500553             738.419         -9.9592e+06         2.68104e+08
    1.89              500225              737.84         -9.9569e+06         2.68088e+08
    1.91              499893             737.255        -9.95456e+06         2.68071e+08
    1.93              499557             736.663        -9.95219e+06         2.68054e+08
    1.95              499218             736.065        -9.94979e+06         2.68036e+08
    1.97              498876             735.461        -9.94735e+06         2.68018e+08
    1.99              498529              734.85        -9.94488e+06         2.67999e+08
    2.01              498180             734.233        -9.94237e+06         2.67979e+08
    2.03              497827             733.609        -9.93982e+06         2.67959e+08
    2.05              497470             732.979        -9.93724e+06         2.67939e+08
    2.07              497110             732.343        -9.93462e+06         2.67918e+08
    2.09              496746             731.701        -9.93196e+06         2.67896e+08
    2.11              496379             731.052        -9.92927e+06         2.67874e+08
    2.13              496008             730.396        -9.92654e+06         2.67851e+08
    2.15              495634             729.734        -9.92377e+06         2.67827e+08
    2.17              495256             729.066        -9.92096e+06         2.67803e+08
    2.19              494875             728.392        -9.91812e+06         2.67778e+08
    2.21              494490             727.711        -9.91524e+06         2.67753e+08
    2.23              494102             727.024        -9.91231e+06         2.67726e+08
    2.25              493710              726.33        -9.90935e+06           2.677e+08
    2.27              493315              725.63        -9.90635e+06         2.67672e+08
    2.29              492916             724.923        -9.90331e+06         2.67644e+08
    2.31              492514              724.21        -9.90023e+06         2.67615e+08
    2.33              492108             723.491        -9.89711e+06         2.67585e+08
    2.35              491698             722.765        -9.89394e+06         2.67555e+08
    2.37              491285             722.033        -9.89074e+06         2.67524e+08
    2.39              490869             721.294        -9.88749e+06         2.67492e+08
    2.41              490449              720.55        -9.88421e+06          2.6746e+08
    2.43              490026             719.798        -9.88088e+06         2.67426e+08
    2.45              489599              719.04         -9.8775e+06         2.67392e+08
    2.47              489168             718.276        -9.87409e+06         2.67357e+08
    2.49              488734             717.505        -9.87063e+06         2.67321e+08
    2.51              488297             716.728        -9.86713e+06         2.67285e+08
    2.53              487856             715.945        -9.86358e+06         2.67247e+08
    2.55              487411             715.155        -9.85999e+06         2.67209e+08
    2.57              486963             714.359        -9.85636e+06          2.6717e+08
    2.59              486512             713.556        -9.85268e+06          2.6713e+08
    2.61              486057             712.747        -9.84895e+06         2.67089e+08
    2.63              485598             711.931        -9.84518e+06         2.67048e+08
    2.65              485136             711.109        -9.84137e+06         2.67005e+08
    2.67              484671             710.281        -9.83751e+06         2.66961e+08
    2.69              484202             709.446         -9.8336e+06         2.66917e+08
    2.71              483729             708.605        -9.82964e+06         2.66872e+08
    2.73              483253             707.757        -9.82564e+06         2.66825e+08
    2.75              482774             706.903        -9.82159e+06         2.66778e+08
    2.77              482291             706.043        -9.81749e+06          2.6673e+08
    2.79              481804             705.176        -9.81335e+06          2.6668e+08
    2.81              481314             704.302        -9.80915e+06          2.6663e+08
    2.83              480821             703.423        -9.80491e+06         2.66579e+08
    2.85              480324             702.537        -9.80062e+06         2.66527e+08
    2.87              479823             701.644        -9.79627e+06         2.66473e+08
    2.89              479319             700.745        -9.79188e+06         2.66419e+08
    2.91              478812              699.84        -9.78744e+06         2.66364e+08
    2.93              478301             698.928        -9.78295e+06         2.66307e+08
    2.95              477786              698.01         -9.7784e+06          2.6625e+08
    2.97              477269             697.085        -9.77381e+06         2.66191e+08
    2.99              476747             696.155        -9.76916e+06         2.66131e+08
    3.01              476222             695.217        -9.76446e+06          2.6607e+08
    3.03              475694             694.274        -9.75971e+06         2.66008e+08
    3.05              475162             693.324        -9.75491e+06         2.65945e+08
    3.07              474627             692.367        -9.75005e+06         2.65881e+08
    3.09              474088             691.405        -9.74514e+06         2.65815e+08
    3.11              473546             690.436        -9.74018e+06         2.65749e+08
    3.13              473000              689.46        -9.73516e+06         2.65681e+08
    3.15              472451             688.478        -9.73009e+06         2.65612e+08
    3.17              471899              687.49        -9.72497e+06         2.65541e+08
    3.19              471343             686.496        -9.71978e+06          2.6547e+08
    3.21              470783             685.495        -9.71455e+06         2.65397e+08
    3.23              470220             684.488        -9.70926e+06         2.65323e+08
    3.25              469654             683.474        -9.70391e+06         2.65248e+08
    3.27              469084             682.455         -9.6985e+06         2.65171e+08
    3.29              468511             681.429        -9.69304e+06         2.65093e+08
    3.31              467934             680.396        -9.68753e+06         2.65014e+08
    3.33              467354             679.358        -9.68195e+06         2.64934e+08
    3.35              466770             678.313        -9.67632e+06         2.64852e+08
    3.37              466183             677.262        -9.67063e+06         2.64769e+08
    3.39              465593             676.204        -9.66488e+06         2.64684e+08
    3.41              464999             675.141        -9.65907e+06         2.64598e+08
    3.43              464402             674.071        -9.65321e+06         2.64511e+08
    3.45              463801             672.994        -9.64728e+06         2.64423e+08
    3.47              463197             671.912         -9.6413e+06         2.64333e+08
    3.49              462589             670.823        -9.63525e+06         2.64241e+08
    3.51              461978             669.729        -9.62915e+06         2.64148e+08
    3.53              461364             668.628        -9.62298e+06         2.64054e+08
    3.55              460746              667.52        -9.61675e+06         2.63958e+08
    3.57              460125             666.407        -9.61047e+06         2.63861e+08
    3.59              459501             665.288        -9.60412e+06         2.63762e+08
    3.61              458873             664.162        -9.59771e+06         2.63662e+08
    3.63              458241              663.03        -9.59123e+06          2.6356e+08
    3.65              457607             661.892         -9.5847e+06         2.63457e+08
    3.67              456969             660.748         -9.5781e+06         2.63352e+08
    3.69              456327             659.598        -9.57144e+06         2.63246e+08
    3.71              455683             658.442        -9.56471e+06         2.63138e+08
    3.73              455035             657.279        -9.55793e+06         2.63028e+08
    3.75              454383             656.111        -9.55107e+06         2.62917e+08
    3.77              453728             654.937        -9.54416e+06         2.62805e+08
    3.79              453070             653.756        -9.53718e+06          2.6269e+08
    3.81              452409              652.57        -9.53013e+06         2.62575e+08
    3.83              451744             651.377        -9.52302e+06         2.62457e+08
    3.85              451076             650.179        -9.51584e+06         2.62338e+08
    3.87              450404             648.974         -9.5086e+06         2.62217e+08
    3.89              449730             647.764        -9.50129e+06         2.62095e+08
    3.91              449052             646.547        -9.49392e+06         2.61971e+08
    3.93              448370             645.325        -9.48648e+06         2.61845e+08
    3.95              447686             644.097        -9.47897e+06         2.61718e+08
    3.97              446998             642.863        -9.47139e+06         2.61589e+08
    3.99              446306             641.623        -9.46375e+06         2.61458e+08
    4.01              445612             640.377        -9.45604e+06         2.61325e+08
    4.03              444914             639.125        -9.44826e+06         2.61191e+08
    4.05              444213             637.868        -9.44042e+06         2.61055e+08
    4.07              443509             636.604         -9.4325e+06         2.60917e+08
    4.09              442801             635.335        -9.42452e+06         2.60777e+08
    4.11              442090             634.061        -9.41647e+06         2.60636e+08
    4.13              441376              632.78        -9.40834e+06         2.60492e+08
    4.15              440659             631.494        -9.40015e+06         2.60347e+08
    4.17              439938             630.202        -9.39189e+06         2.60201e+08
    4.19              439215             628.904        -9.38356e+06         2.60052e+08
    4.21              438488               627.6        -9.37516e+06         2.59901e+08
    4.23              437758             626.291        -9.36669e+06         2.59749e+08
    4.25              437024             624.977        -9.35814e+06         2.59595e+08
    4.27              436288             623.656        -9.34953e+06         2.59439e+08
    4.29              435548             622.331        -9.34085e+06          2.5928e+08
    4.31              434805             620.999        -9.33209e+06         2.59121e+08
    4.33              434059             619.662        -9.32326e+06         2.58959e+08
    4.35              433310              618.32        -9.31436e+06         2.58795e+08
    4.37              432558             616.972        -9.30539e+06         2.58629e+08
    4.39              431802             615.619        -9.29634e+06         2.58462e+08
    4.41              431043              614.26        -9.28723e+06         2.58292e+08
    4.43              430282             612.895        -9.27804e+06         2.58121e+08
    4.45              429517             611.526        -9.26877e+06         2.57947e+08
