## w(eV)         sigma(Sm^-1)     kappa(W(mK)^-1)        L12/e(Am^-1)      L22/e^2(Wm^-1)
    0.01              371888             525.769         -9.3783e+06          2.8631e+08
    0.03              371890             525.767        -9.37835e+06         2.86311e+08
    0.05              371895             525.764        -9.37844e+06         2.86313e+08
    0.07              371901             525.759        -9.37858e+06         2.86315e+08
    0.09              371909             525.753        -9.37877e+06         2.86319e+08
    0.11              371920             525.745          -9.379e+06         2.86323e+08
    0.13              371932             525.735        -9.37929e+06         2.86328e+08
    0.15              371947             525.724        -9.37961e+06         2.86335e+08
    0.17              371964             525.711        -9.37999e+06         2.86342e+08
    0.19              371982             525.696        -9.38041e+06          2.8635e+08
    0.21              372003              525.68        -9.38088e+06         2.86359e+08
    0.23              372026             525.663        -9.38139e+06         2.86368e+08
    0.25              372051             525.643        -9.38195e+06         2.86379e+08
    0.27              372078             525.622        -9.38256e+06          2.8639e+08
    0.29              372107               525.6        -9.38321e+06         2.86403e+08
    0.31              372138             525.575        -9.38391e+06         2.86416e+08
    0.33              372171              525.55        -9.38465e+06          2.8643e+08
    0.35              372206             525.522        -9.38544e+06         2.86445e+08
    0.37              372243             525.493        -9.38628e+06          2.8646e+08
    0.39              372283             525.462        -9.38716e+06         2.86477e+08
    0.41              372324              525.43        -9.38808e+06         2.86494e+08
    0.43              372367             525.396        -9.38905e+06         2.86512e+08
    0.45              372412              525.36        -9.39007e+06         2.86531e+08
    0.47              372459             525.323        -9.39113e+06         2.86551e+08
    0.49              372509             525.284        -9.39223e+06         2.86572e+08
    0.51              372560             525.243        -9.39337e+06         2.86594e+08
    0.53              372613             525.201        -9.39457e+06         2.86616e+08
    0.55              372668             525.157         -9.3958e+06         2.86639e+08
    0.57              372724             525.111        -9.39707e+06         2.86663e+08
    0.59              372783             525.064        -9.39839e+06         2.86687e+08
    0.61              372844             525.015        -9.39976e+06         2.86713e+08
    0.63              372907             524.964        -9.40116e+06         2.86739e+08
    0.65              372971             524.912         -9.4026e+06         2.86766e+08
    0.67              373037             524.858        -9.40409e+06         2.86794e+08
    0.69              373105             524.802        -9.40562e+06         2.86822e+08
    0.71              373175             524.745        -9.40719e+06         2.86851e+08
    0.73              373247             524.686         -9.4088e+06         2.86881e+08
    0.75              373321             524.625        -9.41044e+06         2.86912e+08
    0.77              373396             524.562        -9.41213e+06         2.86943e+08
    0.79              373473             524.498        -9.41386e+06         2.86975e+08
    0.81              373552             524.432        -9.41563e+06         2.87008e+08
    0.83              373633             524.364        -9.41743e+06         2.87041e+08
    0.85              373715             524.295        -9.41928e+06         2.87075e+08
    0.87              373799             524.223        -9.42116e+06          2.8711e+08
    0.89              373885              524.15        -9.42307e+06         2.87145e+08
    0.91              373972             524.076        -9.42503e+06         2.87181e+08
    0.93              374061             523.999        -9.42702e+06         2.87218e+08
    0.95              374152             523.921        -9.42905e+06         2.87255e+08
    0.97              374244             523.841        -9.43111e+06         2.87293e+08
    0.99              374338             523.759         -9.4332e+06         2.87331e+08
    1.01              374433             523.675        -9.43533e+06          2.8737e+08
    1.03              374530              523.59         -9.4375e+06         2.87409e+08
    1.05              374629             523.502         -9.4397e+06         2.87449e+08
    1.07              374728             523.413        -9.44193e+06          2.8749e+08
    1.09              374830             523.322        -9.44419e+06         2.87531e+08
    1.11              374933             523.229        -9.44648e+06         2.87572e+08
    1.13              375037             523.135        -9.44881e+06         2.87614e+08
    1.15              375143             523.038        -9.45117e+06         2.87657e+08
    1.17              375250              522.94        -9.45355e+06           2.877e+08
    1.19              375358              522.84        -9.45597e+06         2.87743e+08
    1.21              375468             522.737        -9.45841e+06         2.87787e+08
    1.23              375579             522.633        -9.46088e+06         2.87832e+08
    1.25              375691             522.528        -9.46339e+06         2.87876e+08
    1.27              375804              522.42        -9.46591e+06         2.87921e+08
    1.29              375919              522.31        -9.46847e+06         2.87967e+08
    1.31              376035             522.198        -9.47104e+06         2.88013e+08
    1.33              376152             522.085        -9.47365e+06         2.88059e+08
    1.35              376270             521.969        -9.47628e+06         2.88105e+08
    1.37              376390             521.852        -9.47893e+06         2.88152e+08
    1.39              376510             521.732        -9.48161e+06         2.88199e+08
    1.41              376632             521.611         -9.4843e+06         2.88246e+08
    1.43              376754             521.487        -9.48702e+06         2.88294e+08
    1.45              376878             521.362        -9.48977e+06         2.88342e+08
    1.47              377002             521.234        -9.49253e+06          2.8839e+08
    1.49              377128             521.105        -9.49531e+06         2.88438e+08
    1.51              377254             520.974        -9.49811e+06         2.88486e+08
    1.53              377382              520.84        -9.50093e+06         2.88535e+08
    1.55              377510             520.704        -9.50376e+06         2.88584e+08
    1.57              377639             520.567        -9.50661e+06         2.88633e+08
    1.59              377768             520.427        -9.50948e+06         2.88682e+08
    1.61              377899             520.285        -9.51237e+06         2.88731e+08
    1.63              378030             520.141        -9.51526e+06          2.8878e+08
    1.65              378162             519.995        -9.51818e+06         2.88829e+08
    1.67              378294             519.847         -9.5211e+06         2.88878e+08
    1.69              378427             519.697        -9.52404e+06         2.88928e+08
    1.71              378561             519.544        -9.52699e+06         2.88977e+08
    1.73              378696              519.39        -9.52995e+06         2.89026e+08
    1.75              378830             519.233        -9.53292e+06         2.89075e+08
    1.77              378966             519.074        -9.53589e+06         2.89124e+08
    1.79              379101             518.913        -9.53888e+06         2.89173e+08
    1.81              379238              518.75        -9.54187e+06         2.89222e+08
    1.83              379374             518.584        -9.54487e+06         2.89271e+08
    1.85              379511             518.416        -9.54788e+06          2.8932e+08
    1.87              379648             518.246        -9.55089e+06         2.89368e+08
    1.89              379786             518.074         -9.5539e+06         2.89417e+08
    1.91              379924             517.899        -9.55692e+06         2.89465e+08
    1.93              380062             517.723        -9.55994e+06         2.89513e+08
    1.95              380200             517.543        -9.56296e+06          2.8956e+08
    1.97              380338             517.362        -9.56598e+06         2.89608e+08
    1.99              380476             517.178          -9.569e+06         2.89655e+08
    2.01              380615             516.992        -9.57202e+06         2.89701e+08
    2.03              380753             516.803        -9.57504e+06         2.89748e+08
    2.05              380892             516.613        -9.57806e+06         2.89794e+08
    2.07              381030             516.419        -9.58107e+06         2.89839e+08
    2.09              381168             516.224        -9.58407e+06         2.89885e+08
    2.11              381306             516.026        -9.58707e+06         2.89929e+08
    2.13              381444             515.825        -9.59007e+06         2.89974e+08
    2.15              381582             515.622        -9.59305e+06         2.90017e+08
    2.17              381720             515.417        -9.59603e+06         2.90061e+08
    2.19              381857             515.209          -9.599e+06         2.90104e+08
    2.21              381994             514.999        -9.60195e+06         2.90146e+08
    2.23              382130             514.786         -9.6049e+06         2.90188e+08
    2.25              382266             514.571        -9.60783e+06         2.90229e+08
    2.27              382402             514.353        -9.61075e+06         2.90269e+08
    2.29              382537             514.132        -9.61366e+06         2.90309e+08
    2.31              382671             513.909        -9.61655e+06         2.90348e+08
    2.33              382805             513.684        -9.61942e+06         2.90387e+08
    2.35              382939             513.456        -9.62228e+06         2.90424e+08
    2.37              383072             513.225        -9.62512e+06         2.90461e+08
    2.39              383204             512.992        -9.62794e+06         2.90498e+08
    2.41              383335             512.756        -9.63074e+06         2.90533e+08
    2.43              383465             512.517        -9.63352e+06         2.90568e+08
    2.45              383595             512.276        -9.63628e+06         2.90602e+08
    2.47              383724             512.032        -9.63901e+06         2.90635e+08
    2.49              383852             511.785        -9.64172e+06         2.90667e+08
    2.51              383979             511.536         -9.6444e+06         2.90698e+08
    2.53              384105             511.284        -9.64706e+06         2.90728e+08
    2.55              384229             511.029        -9.64969e+06         2.90757e+08
    2.57              384353             510.771         -9.6523e+06         2.90786e+08
    2.59              384476             510.511        -9.65487e+06         2.90813e+08
    2.61              384597             510.248        -9.65742e+06         2.90839e+08
    2.63              384718             509.982        -9.65993e+06         2.90864e+08
    2.65              384837             509.713        -9.66241e+06         2.90888e+08
    2.67              384954             509.442        -9.66486e+06         2.90911e+08
    2.69              385071             509.167        -9.66727e+06         2.90933e+08
    2.71              385186              508.89        -9.66965e+06         2.90954e+08
    2.73              385299              508.61        -9.67199e+06         2.90973e+08
    2.75              385411             508.327        -9.67429e+06         2.90992e+08
    2.77              385522             508.041        -9.67656e+06         2.91009e+08
    2.79              385631             507.752        -9.67879e+06         2.91024e+08
    2.81              385738              507.46        -9.68097e+06         2.91039e+08
    2.83              385844             507.165        -9.68312e+06         2.91052e+08
    2.85              385948             506.867        -9.68522e+06         2.91064e+08
    2.87              386050             506.566        -9.68728e+06         2.91074e+08
    2.89              386151             506.262        -9.68929e+06         2.91083e+08
    2.91              386250             505.955        -9.69126e+06         2.91091e+08
    2.93              386346             505.645        -9.69319e+06         2.91097e+08
    2.95              386441             505.332        -9.69506e+06         2.91102e+08
    2.97              386534             505.016        -9.69689e+06         2.91105e+08
    2.99              386625             504.697        -9.69866e+06         2.91106e+08
    3.01              386714             504.375        -9.70039e+06         2.91107e+08
    3.03              386801             504.049        -9.70206e+06         2.91105e+08
    3.05              386885             503.721        -9.70368e+06         2.91102e+08
    3.07              386968             503.389        -9.70525e+06         2.91097e+08
    3.09              387048             503.054        -9.70676e+06         2.91091e+08
    3.11              387126             502.716        -9.70822e+06         2.91083e+08
    3.13              387202             502.375        -9.70961e+06         2.91073e+08
    3.15              387275              502.03        -9.71096e+06         2.91062e+08
    3.17              387346             501.683        -9.71224e+06         2.91049e+08
    3.19              387414             501.332        -9.71346e+06         2.91034e+08
    3.21              387480             500.977        -9.71462e+06         2.91017e+08
    3.23              387543              500.62        -9.71572e+06         2.90998e+08
    3.25              387604             500.259        -9.71675e+06         2.90978e+08
    3.27              387662             499.895        -9.71772e+06         2.90955e+08
    3.29              387717             499.527        -9.71862e+06         2.90931e+08
    3.31              387770             499.156        -9.71946e+06         2.90905e+08
    3.33              387820             498.782        -9.72023e+06         2.90877e+08
    3.35              387867             498.404        -9.72094e+06         2.90846e+08
    3.37              387912             498.023        -9.72157e+06         2.90814e+08
    3.39              387953             497.639        -9.72213e+06          2.9078e+08
    3.41              387991             497.251        -9.72262e+06         2.90744e+08
    3.43              388027              496.86        -9.72304e+06         2.90705e+08
    3.45              388059             496.465        -9.72339e+06         2.90665e+08
    3.47              388089             496.066        -9.72366e+06         2.90622e+08
    3.49              388115             495.665        -9.72385e+06         2.90578e+08
    3.51              388138             495.259        -9.72397e+06         2.90531e+08
    3.53              388158             494.851        -9.72401e+06         2.90481e+08
    3.55              388175             494.438        -9.72398e+06          2.9043e+08
    3.57              388188             494.022        -9.72386e+06         2.90376e+08
    3.59              388198             493.603        -9.72366e+06          2.9032e+08
    3.61              388205              493.18        -9.72338e+06         2.90262e+08
    3.63              388208             492.753        -9.72302e+06         2.90202e+08
    3.65              388208             492.323        -9.72258e+06         2.90139e+08
    3.67              388204             491.889        -9.72205e+06         2.90073e+08
    3.69              388197             491.451        -9.72143e+06         2.90006e+08
    3.71              388186              491.01        -9.72073e+06         2.89936e+08
    3.73              388172             490.565        -9.71995e+06         2.89863e+08
    3.75              388154             490.116        -9.71907e+06         2.89788e+08
    3.77              388132             489.664         -9.7181e+06          2.8971e+08
    3.79              388107             489.208        -9.71705e+06          2.8963e+08
    3.81              388077             488.748         -9.7159e+06         2.89548e+08
    3.83              388044             488.285        -9.71466e+06         2.89462e+08
    3.85              388007             487.818        -9.71333e+06         2.89375e+08
    3.87              387966             487.347        -9.71191e+06         2.89284e+08
    3.89              387922             486.872        -9.71039e+06         2.89191e+08
    3.91              387873             486.393        -9.70877e+06         2.89095e+08
    3.93              387820             485.911        -9.70706e+06         2.88997e+08
    3.95              387763             485.424        -9.70525e+06         2.88896e+08
    3.97              387702             484.934        -9.70334e+06         2.88792e+08
    3.99              387637              484.44        -9.70133e+06         2.88686e+08
    4.01              387568             483.943        -9.69922e+06         2.88576e+08
    4.03              387495             483.441        -9.69701e+06         2.88464e+08
    4.05              387417             482.935         -9.6947e+06         2.88349e+08
    4.07              387335             482.426        -9.69229e+06         2.88232e+08
    4.09              387249             481.912        -9.68977e+06         2.88111e+08
    4.11              387158             481.395        -9.68715e+06         2.87988e+08
    4.13              387063             480.874        -9.68442e+06         2.87861e+08
    4.15              386964             480.348        -9.68159e+06         2.87732e+08
    4.17              386860             479.819        -9.67865e+06           2.876e+08
    4.19              386751             479.286         -9.6756e+06         2.87465e+08
    4.21              386638             478.749        -9.67245e+06         2.87327e+08
    4.23              386521             478.208        -9.66918e+06         2.87185e+08
    4.25              386399             477.663        -9.66581e+06         2.87041e+08
    4.27              386272             477.113        -9.66232e+06         2.86894e+08
    4.29              386141              476.56        -9.65872e+06         2.86744e+08
    4.31              386005             476.003        -9.65501e+06         2.86591e+08
    4.33              385864             475.442        -9.65119e+06         2.86434e+08
    4.35              385718             474.876        -9.64725e+06         2.86275e+08
    4.37              385568             474.307         -9.6432e+06         2.86112e+08
    4.39              385413             473.733        -9.63903e+06         2.85947e+08
    4.41              385253             473.156        -9.63475e+06         2.85778e+08
    4.43              385088             472.574        -9.63035e+06         2.85606e+08
    4.45              384918             471.988        -9.62583e+06          2.8543e+08
