## w(eV)         sigma(Sm^-1)     kappa(W(mK)^-1)        L12/e(Am^-1)      L22/e^2(Wm^-1)
    0.01              538201             858.544        -1.10683e+07         3.08954e+08
    0.03              538197             858.533        -1.10682e+07         3.08952e+08
    0.05              538188             858.512        -1.10681e+07         3.08949e+08
    0.07              538174             858.481        -1.10679e+07         3.08943e+08
    0.09              538156             858.439        -1.10676e+07         3.08937e+08
    0.11              538133             858.386        -1.10673e+07         3.08928e+08
    0.13              538106             858.323        -1.10669e+07         3.08918e+08
    0.15              538075              858.25        -1.10665e+07         3.08905e+08
    0.17              538039             858.166        -1.10659e+07         3.08892e+08
    0.19              537998             858.072        -1.10654e+07         3.08876e+08
    0.21              537953             857.967        -1.10647e+07         3.08859e+08
    0.23              537903             857.852         -1.1064e+07          3.0884e+08
    0.25              537849             857.726        -1.10632e+07         3.08819e+08
    0.27              537790              857.59        -1.10624e+07         3.08797e+08
    0.29              537727             857.443        -1.10615e+07         3.08773e+08
    0.31              537659             857.286        -1.10605e+07         3.08747e+08
    0.33              537587             857.118        -1.10595e+07         3.08719e+08
    0.35              537510              856.94        -1.10584e+07          3.0869e+08
    0.37              537429             856.752        -1.10573e+07         3.08659e+08
    0.39              537343             856.553         -1.1056e+07         3.08626e+08
    0.41              537253             856.344        -1.10548e+07         3.08591e+08
    0.43              537158             856.124        -1.10534e+07         3.08555e+08
    0.45              537059             855.894         -1.1052e+07         3.08517e+08
    0.47              536955             855.653        -1.10505e+07         3.08477e+08
    0.49              536847             855.403         -1.1049e+07         3.08436e+08
    0.51              536734             855.141        -1.10474e+07         3.08393e+08
    0.53              536617              854.87        -1.10457e+07         3.08348e+08
    0.55              536495             854.588         -1.1044e+07         3.08301e+08
    0.57              536369             854.296        -1.10422e+07         3.08253e+08
    0.59              536238             853.993        -1.10403e+07         3.08203e+08
    0.61              536103             853.681        -1.10384e+07         3.08151e+08
    0.63              535963             853.358        -1.10364e+07         3.08098e+08
    0.65              535819             853.024        -1.10343e+07         3.08042e+08
    0.67              535670             852.681        -1.10322e+07         3.07985e+08
    0.69              535517             852.327          -1.103e+07         3.07927e+08
    0.71              535359             851.963        -1.10277e+07         3.07866e+08
    0.73              535197             851.589        -1.10254e+07         3.07804e+08
    0.75              535031             851.204         -1.1023e+07          3.0774e+08
    0.77              534859             850.809        -1.10206e+07         3.07675e+08
    0.79              534684             850.405        -1.10181e+07         3.07607e+08
    0.81              534504              849.99        -1.10155e+07         3.07538e+08
    0.83              534319             849.565        -1.10129e+07         3.07467e+08
    0.85              534130              849.13        -1.10101e+07         3.07395e+08
    0.87              533937             848.684        -1.10074e+07         3.07321e+08
    0.89              533739             848.229        -1.10045e+07         3.07245e+08
    0.91              533536             847.764        -1.10016e+07         3.07167e+08
    0.93              533329             847.288        -1.09987e+07         3.07087e+08
    0.95              533118             846.803        -1.09956e+07         3.07006e+08
    0.97              532902             846.307        -1.09925e+07         3.06923e+08
    0.99              532682             845.802        -1.09894e+07         3.06839e+08
    1.01              532457             845.286        -1.09861e+07         3.06752e+08
    1.03              532228             844.761        -1.09828e+07         3.06664e+08
    1.05              531994             844.226        -1.09795e+07         3.06574e+08
    1.07              531756             843.681        -1.09761e+07         3.06483e+08
    1.09              531514             843.126        -1.09726e+07         3.06389e+08
    1.11              531267             842.561         -1.0969e+07         3.06294e+08
    1.13              531016             841.987        -1.09654e+07         3.06197e+08
    1.15              530760             841.402        -1.09617e+07         3.06099e+08
    1.17              530500             840.808         -1.0958e+07         3.05999e+08
    1.19              530235             840.204        -1.09541e+07         3.05897e+08
    1.21              529966             839.591        -1.09503e+07         3.05793e+08
    1.23              529692             838.967        -1.09463e+07         3.05687e+08
    1.25              529415             838.334        -1.09423e+07          3.0558e+08
    1.27              529132             837.692        -1.09382e+07         3.05471e+08
    1.29              528846              837.04        -1.09341e+07         3.05361e+08
    1.31              528554             836.378        -1.09299e+07         3.05248e+08
    1.33              528259             835.707        -1.09256e+07         3.05134e+08
    1.35              527959             835.026        -1.09212e+07         3.05018e+08
    1.37              527655             834.335        -1.09168e+07         3.04901e+08
    1.39              527346             833.636        -1.09123e+07         3.04781e+08
    1.41              527033             832.926        -1.09078e+07          3.0466e+08
    1.43              526715             832.208        -1.09032e+07         3.04537e+08
    1.45              526394              831.48        -1.08985e+07         3.04413e+08
    1.47              526067             830.742        -1.08938e+07         3.04286e+08
    1.49              525737             829.995         -1.0889e+07         3.04158e+08
    1.51              525402             829.239        -1.08841e+07         3.04028e+08
    1.53              525063             828.474        -1.08792e+07         3.03897e+08
    1.55              524719               827.7        -1.08742e+07         3.03764e+08
    1.57              524371             826.916        -1.08691e+07         3.03629e+08
    1.59              524018             826.123        -1.08639e+07         3.03492e+08
    1.61              523662             825.321        -1.08587e+07         3.03353e+08
    1.63              523301              824.51        -1.08535e+07         3.03213e+08
    1.65              522935              823.69        -1.08481e+07         3.03071e+08
    1.67              522566              822.86        -1.08427e+07         3.02927e+08
    1.69              522192             822.022        -1.08372e+07         3.02782e+08
    1.71              521813             821.175        -1.08317e+07         3.02635e+08
    1.73              521431             820.319        -1.08261e+07         3.02486e+08
    1.75              521044             819.454        -1.08204e+07         3.02335e+08
    1.77              520652              818.58        -1.08147e+07         3.02183e+08
    1.79              520257             817.697        -1.08089e+07         3.02028e+08
    1.81              519857             816.806         -1.0803e+07         3.01872e+08
    1.83              519453             815.906        -1.07971e+07         3.01715e+08
    1.85              519044             814.997        -1.07911e+07         3.01555e+08
    1.87              518631             814.079         -1.0785e+07         3.01394e+08
    1.89              518214             813.153        -1.07788e+07         3.01231e+08
    1.91              517793             812.218        -1.07726e+07         3.01066e+08
    1.93              517368             811.274        -1.07663e+07           3.009e+08
    1.95              516938             810.322          -1.076e+07         3.00732e+08
    1.97              516504             809.362        -1.07536e+07         3.00562e+08
    1.99              516065             808.393        -1.07471e+07          3.0039e+08
    2.01              515623             807.415        -1.07405e+07         3.00217e+08
    2.03              515176              806.43        -1.07339e+07         3.00042e+08
    2.05              514725             805.435        -1.07272e+07         2.99865e+08
    2.07              514270             804.433        -1.07205e+07         2.99686e+08
    2.09              513810             803.422        -1.07137e+07         2.99506e+08
    2.11              513347             802.403        -1.07068e+07         2.99323e+08
    2.13              512879             801.376        -1.06998e+07         2.99139e+08
    2.15              512407             800.341        -1.06928e+07         2.98954e+08
    2.17              511930             799.298        -1.06857e+07         2.98766e+08
    2.19              511450             798.246        -1.06786e+07         2.98577e+08
    2.21              510965             797.187        -1.06713e+07         2.98386e+08
    2.23              510477             796.119         -1.0664e+07         2.98193e+08
    2.25              509984             795.044        -1.06567e+07         2.97999e+08
    2.27              509486             793.961        -1.06492e+07         2.97803e+08
    2.29              508985              792.87        -1.06417e+07         2.97605e+08
    2.31              508480             791.771        -1.06342e+07         2.97405e+08
    2.33              507970             790.664        -1.06265e+07         2.97204e+08
    2.35              507456              789.55        -1.06188e+07            2.97e+08
    2.37              506939             788.428         -1.0611e+07         2.96796e+08
    2.39              506417             787.298        -1.06032e+07         2.96589e+08
    2.41              505891              786.16        -1.05953e+07          2.9638e+08
    2.43              505360             785.015        -1.05873e+07          2.9617e+08
    2.45              504826             783.863        -1.05792e+07         2.95958e+08
    2.47              504288             782.703        -1.05711e+07         2.95744e+08
    2.49              503745             781.536        -1.05629e+07         2.95529e+08
    2.51              503199             780.361        -1.05547e+07         2.95312e+08
    2.53              502648             779.179        -1.05463e+07         2.95092e+08
    2.55              502093              777.99         -1.0538e+07         2.94872e+08
    2.57              501535             776.793        -1.05295e+07         2.94649e+08
    2.59              500972             775.589         -1.0521e+07         2.94425e+08
    2.61              500405             774.378        -1.05123e+07         2.94199e+08
    2.63              499834              773.16        -1.05037e+07         2.93971e+08
    2.65              499260             771.935        -1.04949e+07         2.93741e+08
    2.67              498681             770.703        -1.04861e+07          2.9351e+08
    2.69              498098             769.464        -1.04772e+07         2.93277e+08
    2.71              497511             768.217        -1.04683e+07         2.93042e+08
    2.73              496920             766.964        -1.04593e+07         2.92805e+08
    2.75              496325             765.705        -1.04502e+07         2.92567e+08
    2.77              495727             764.438         -1.0441e+07         2.92327e+08
    2.79              495124             763.165        -1.04318e+07         2.92085e+08
    2.81              494517             761.885        -1.04225e+07         2.91841e+08
    2.83              493907             760.598        -1.04131e+07         2.91596e+08
    2.85              493292             759.304        -1.04037e+07         2.91349e+08
    2.87              492674             758.005        -1.03942e+07           2.911e+08
    2.89              492051             756.698        -1.03846e+07         2.90849e+08
    2.91              491425             755.385         -1.0375e+07         2.90597e+08
    2.93              490795             754.066        -1.03653e+07         2.90342e+08
    2.95              490160              752.74        -1.03555e+07         2.90086e+08
    2.97              489522             751.408        -1.03456e+07         2.89829e+08
    2.99              488881              750.07        -1.03357e+07         2.89569e+08
    3.01              488235             748.725        -1.03257e+07         2.89308e+08
    3.03              487585             747.375        -1.03157e+07         2.89045e+08
    3.05              486932             746.018        -1.03055e+07          2.8878e+08
    3.07              486275             744.655        -1.02953e+07         2.88514e+08
    3.09              485614             743.286         -1.0285e+07         2.88245e+08
    3.11              484949             741.911        -1.02747e+07         2.87975e+08
    3.13              484280              740.53        -1.02643e+07         2.87703e+08
    3.15              483607             739.143        -1.02538e+07          2.8743e+08
    3.17              482931              737.75        -1.02433e+07         2.87154e+08
    3.19              482251             736.352        -1.02326e+07         2.86877e+08
    3.21              481567             734.948        -1.02219e+07         2.86598e+08
    3.23              480880             733.538        -1.02112e+07         2.86318e+08
    3.25              480188             732.122        -1.02003e+07         2.86035e+08
    3.27              479493             730.701        -1.01894e+07         2.85751e+08
    3.29              478795             729.274        -1.01785e+07         2.85465e+08
    3.31              478092             727.842        -1.01674e+07         2.85178e+08
    3.33              477386             726.404        -1.01563e+07         2.84888e+08
    3.35              476676             724.961        -1.01451e+07         2.84597e+08
    3.37              475963             723.513        -1.01339e+07         2.84304e+08
    3.39              475245             722.059        -1.01226e+07         2.84009e+08
    3.41              474525               720.6        -1.01112e+07         2.83713e+08
    3.43              473800             719.136        -1.00997e+07         2.83415e+08
    3.45              473072             717.666        -1.00882e+07         2.83115e+08
    3.47              472340             716.192        -1.00766e+07         2.82813e+08
    3.49              471605             714.712        -1.00649e+07         2.82509e+08
    3.51              470866             713.227        -1.00532e+07         2.82204e+08
    3.53              470123             711.738        -1.00413e+07         2.81897e+08
    3.55              469377             710.243        -1.00295e+07         2.81588e+08
    3.57              468628             708.744        -1.00175e+07         2.81278e+08
    3.59              467874             707.239        -1.00055e+07         2.80966e+08
    3.61              467118              705.73        -9.99339e+06         2.80652e+08
    3.63              466357             704.217        -9.98123e+06         2.80336e+08
    3.65              465594             702.698          -9.969e+06         2.80018e+08
    3.67              464826             701.175         -9.9567e+06         2.79699e+08
    3.69              464056             699.647        -9.94433e+06         2.79378e+08
    3.71              463281             698.115        -9.93189e+06         2.79055e+08
    3.73              462504             696.579        -9.91937e+06         2.78731e+08
    3.75              461722             695.037        -9.90679e+06         2.78405e+08
    3.77              460938             693.492        -9.89414e+06         2.78077e+08
    3.79              460150             691.942        -9.88142e+06         2.77747e+08
    3.81              459358             690.388        -9.86864e+06         2.77415e+08
    3.83              458563              688.83        -9.85578e+06         2.77082e+08
    3.85              457765             687.267        -9.84285e+06         2.76747e+08
    3.87              456964             685.701        -9.82985e+06          2.7641e+08
    3.89              456159              684.13        -9.81678e+06         2.76072e+08
    3.91              455350             682.555        -9.80365e+06         2.75732e+08
    3.93              454539             680.976        -9.79044e+06          2.7539e+08
    3.95              453724             679.394        -9.77716e+06         2.75046e+08
    3.97              452905             677.807        -9.76382e+06         2.74701e+08
    3.99              452084             676.217        -9.75041e+06         2.74353e+08
    4.01              451259             674.622        -9.73692e+06         2.74005e+08
    4.03              450431             673.024        -9.72337e+06         2.73654e+08
    4.05              449600             671.423        -9.70975e+06         2.73302e+08
    4.07              448765             669.817        -9.69606e+06         2.72948e+08
    4.09              447927             668.208         -9.6823e+06         2.72592e+08
    4.11              447086             666.596        -9.66848e+06         2.72234e+08
    4.13              446242              664.98        -9.65458e+06         2.71875e+08
    4.15              445395              663.36        -9.64062e+06         2.71514e+08
    4.17              444544             661.737        -9.62658e+06         2.71151e+08
    4.19              443691             660.111        -9.61248e+06         2.70787e+08
    4.21              442834             658.482        -9.59831e+06         2.70421e+08
    4.23              441974             656.849        -9.58408e+06         2.70053e+08
    4.25              441111             655.213        -9.56977e+06         2.69683e+08
    4.27              440245             653.574         -9.5554e+06         2.69312e+08
    4.29              439376             651.931        -9.54095e+06         2.68939e+08
    4.31              438504             650.286        -9.52644e+06         2.68564e+08
    4.33              437628             648.637        -9.51187e+06         2.68188e+08
    4.35              436750             646.986        -9.49722e+06          2.6781e+08
    4.37              435869             645.332        -9.48251e+06          2.6743e+08
    4.39              434984             643.674        -9.46773e+06         2.67048e+08
    4.41              434097             642.014        -9.45288e+06         2.66665e+08
    4.43              433207             640.351        -9.43796e+06          2.6628e+08
    4.45              432314             638.686        -9.42298e+06         2.65894e+08
